File: 1.5UC-SRO-BTO-SRO-NSTO(3rd_sample_new)-1MKOH_GraphiteCE_SCE_REF_CV_upvsdown_04_CV_C01.mpt
EC-Lab ASCII FILE
Nb header lines : 59

Cyclic Voltammetry

Run on channel : 1 (SN 2826)
User :
Electrode connection : standard
Potential control : Ewe
Ewe ctrl range : min = -10.00 V, max = 10.00 V
Ewe,I filtering : 50 kHz
Safety Limits :
	Do not start on E overload
Channel : Grounded
Acquisition started on : 01/01/2023 19:45:55.008
Loaded Setting File :  NONE
Saved on :
	File : 1.5UC-SRO-BTO-SRO-NSTO(3rd_sample_new)-1MKOH_GraphiteCE_SCE_REF_CV_upvsdown_04_CV_C01.mpr
	Directory : C:\Data\Pedram\01012023\
	Host : 192.109.209.127
Device : VSP-300 (SN 0229)
Address : 192.109.209.128
EC-LAB for windows v11.42 (software)
Internet server v11.40 (firmware)
Command interpretor v11.42 (firmware)
Electrode material :
Initial state :
Electrolyte :
Comments :
Cable : standard
Electrode surface area : 0.001 cm²
Characteristic mass : 0.001 g
Equivalent Weight : 0.000 g/eq.
Density : 0.000 g/cm3
Volume (V) : 0.001 cm³
Cycle Definition : Charge/Discharge alternance
Ei (V)              -0.800
vs.                 Ref
dE/dt               50.000
dE/dt unit          mV/s
E1 (V)              -0.600
vs.                 Ref
Step percent        50
N                   10
E range min (V)     -10.000
E range max (V)     10.000
I Range             Auto
I Range min         Unset
I Range max         Unset
I Range init        Unset
Bandwidth           8
E2 (V)              -1.370
vs.                 Ref
nc cycles           10
Reverse Scan        0
Ef (V)              0.000
vs.                 Eoc

mode	ox/red	error	control changes	counter inc.	time/s	control/V	Ewe/V	<I>/mA	cycle number	(Q-Qo)/C	I Range	Rcmp/Ohm	step time/s	Pwe/W	Rwe/Ohm
2	1	0	1	0	18.5122	-0.795659	-0.795447	0.0153533	1	0.0000000E+000	40	19.5487	0.000000000000000E+000	-1.22127e-05	51809.6
2	1	0	1	0	21.4146	-0.650537	-0.650311	0.000309032	1	1.43917e-06	42	19.5487	1.8992	-2.00967e-07	2.10435e+06
2	0	0	1	0	24.1664	-0.687232	-0.687126	-0.00109819	1	5.034e-07	42	19.5487	1.7	7.54597e-07	625687
2	0	0	1	0	27.0904	-0.833432	-0.833336	-0.002348	1	-5.09869e-06	42	19.5487	4.624	1.95667e-06	354913
2	0	0	1	0	30.0416	-0.980992	-0.980784	-0.00523319	1	-1.6457e-05	41	19.5487	7.5752	5.13263e-06	187416
2	0	0	1	0	32.9656	-1.12719	-1.12699	-0.0102935	1	-4.02309e-05	41	19.5487	10.4992	1.16007e-05	109486
2	0	0	1	0	35.8896	-1.27339	-1.27323	-0.0161604	1	-7.99728e-05	41	19.5487	13.4232	2.05759e-05	78787.1
2	0	0	1	1	38.6788	-1.32715	-1.32697	-0.0120741	1	-0.000128662	41	19.5487	16.2124	1.6022e-05	109902
2	0	0	1	1	41.6028	-1.18095	-1.1808	-0.00303561	1	-0.000147117	41	19.5487	19.1364	3.58444e-06	388982
2	1	0	1	1	44.5268	-1.03475	-1.03459	0.000185838	1	-0.000149361	41	19.5487	0.68	-1.92267e-07	5.56717e+06
2	1	0	1	1	47.4508	-0.888549	-0.888368	0.00140488	1	-0.000145884	41	19.5487	3.604	-1.24805e-06	632344
2	1	0	1	1	50.2864	-0.746769	-0.746619	0.00164145	2	-0.000140765	41	19.5487	6.4396	-1.22553e-06	454854
2	1	0	1	1	53.2138	-0.600399	-0.600163	0.00166086	2	-0.000135308	42	19.5487	9.367	-9.96788e-07	361357
2	0	0	1	1	56.0472	-0.741462	-0.741355	-0.000731643	2	-0.000136145	42	19.5487	2.04	5.42407e-07	1.01327e+06
2	0	0	1	1	58.9712	-0.887662	-0.887528	-0.00191042	2	-0.000140673	42	19.5487	4.964	1.69555e-06	464572
2	0	0	1	1	61.9292	-1.03556	-1.0354	-0.0040626	2	-0.000150208	41	19.5487	7.922	4.20643e-06	254862
2	0	0	1	1	64.8532	-1.18176	-1.18157	-0.00768106	2	-0.00016779	41	19.5487	10.846	9.07573e-06	153829
2	0	0	1	1	67.7772	-1.32796	-1.32778	-0.0138668	2	-0.00020026	41	19.5487	13.77	1.84121e-05	95751.9
2	0	0	0	0	70.6262	-1.26942	-1.26925	-0.00496099	2	-0.000229923	41	19.5487	16.619	6.29675e-06	255847
2	0	0	0	0	73.5502	-1.12322	-1.12303	-0.000166907	2	-0.000234968	41	19.5487	0.204	1.87441e-07	6.72847e+06
2	1	0	0	0	76.4742	-0.977019	-0.97681	0.00142072	2	-0.000231684	41	19.5487	3.128	-1.38778e-06	687545
2	1	0	0	0	79.3982	-0.830819	-0.830632	0.00188244	2	-0.000225851	41	19.5487	6.052	-1.56361e-06	441254
2	1	0	0	0	82.2338	-0.689039	-0.688869	0.00184506	3	-0.000219826	41	19.5487	8.8876	-1.271e-06	373359
2	1	0	0	0	85.0706	-0.653062	-0.65292	0.000121733	3	-0.000215824	42	19.5487	0.068	-7.94819e-08	5.36354e+06
2	0	0	0	0	87.9946	-0.799262	-0.799124	-0.00100956	3	-0.000217882	42	19.5487	2.992	8.06765e-07	791556
2	0	0	0	0	90.9186	-0.945462	-0.945325	-0.00226405	3	-0.000223359	42	19.5487	5.916	2.14026e-06	417537
2	0	0	1	0	93.8697	-1.09302	-1.09286	-0.004451	3	-0.000234113	41	19.5487	8.8671	4.8643e-06	245531
2	0	0	1	0	96.7936	-1.23921	-1.23906	-0.00885153	3	-0.000254003	41	19.5487	11.791	1.09676e-05	139983
2	0	0	1	1	99.6492	-1.35783	-1.35766	-0.011428	3	-0.000288703	41	19.5487	14.6466	1.55153e-05	118801
2	0	0	1	1	102.573	-1.21163	-1.21145	-0.00168417	3	-0.000302783	41	19.5487	17.5706	2.0403e-06	719317
2	1	0	1	1	105.497	-1.06543	-1.06525	0.0011118	3	-0.000301672	41	19.5487	1.972	-1.18435e-06	958133
2	1	0	0	1	108.421	-0.919239	-0.919074	0.00192635	3	-0.000296107	41	19.5487	4.8958	-1.77046e-06	477105
2	1	0	0	1	111.257	-0.777459	-0.77728	0.00199066	4	-0.000289717	41	19.5487	7.7314	-1.5473e-06	390464
2	1	0	0	1	114.181	-0.631259	-0.631077	0.00186278	4	-0.000283368	41	19.5487	10.6554	-1.17556e-06	338782
2	0	0	0	1	117.051	-0.712562	-0.712431	-0.000340754	4	-0.000282054	42	19.5487	1.19	2.42763e-07	2.09075e+06
2	0	0	0	1	119.975	-0.858762	-0.858661	-0.00133946	4	-0.000285245	42	19.5487	4.114	1.15014e-06	641049
2	0	0	0	1	122.927	-1.00632	-1.00614	-0.00284737	4	-0.000292185	41	19.5487	7.0652	2.86485e-06	353357
2	0	0	0	1	125.85	-1.1525	-1.15235	-0.00544666	4	-0.000304812	41	19.5487	9.9888	6.27643e-06	211569
2	0	0	0	1	128.774	-1.2987	-1.29852	-0.0106397	4	-0.000329005	41	19.5487	12.9128	1.38158e-05	122045
2	0	0	1	0	131.596	-1.30004	-1.29985	-0.00498344	4	-0.000357708	41	19.5487	15.7342	6.47773e-06	260834
2	1	0	1	0	134.52	-1.15384	-1.15368	0.000254883	4	-0.000361928	41	19.5487	0.544	-2.94053e-07	4.5263e+06
2	1	0	1	0	137.444	-1.00764	-1.00745	0.00176235	4	-0.000357379	41	19.5487	3.468	-1.77548e-06	571650
2	1	0	1	0	140.368	-0.861439	-0.861258	0.00211566	4	-0.000350669	41	19.5487	6.392	-1.82213e-06	407086
2	1	0	1	0	143.203	-0.719659	-0.719471	0.00201769	5	-0.000344077	41	19.5487	9.2276	-1.45167e-06	356581
2	1	0	1	0	146.04	-0.622462	-0.622292	0.000632911	5	-0.00033856	42	19.5487	12.0644	-3.93855e-07	983222
2	0	0	1	0	148.964	-0.768662	-0.768547	-0.000693903	5	-0.000339637	42	19.5487	2.312	5.33296e-07	1.10757e+06
2	0	0	1	0	151.888	-0.914862	-0.914764	-0.00174803	5	-0.000343912	42	19.5487	5.236	1.59904e-06	523311
2	0	0	1	0	154.839	-1.06242	-1.06223	-0.00338287	5	-0.000352291	41	19.5487	8.1872	3.5934e-06	314004
2	0	0	1	0	157.763	-1.20862	-1.20844	-0.00669065	5	-0.0003675	41	19.5487	11.1112	8.08526e-06	180616
2	0	0	1	0	160.687	-1.35482	-1.35463	-0.0126092	5	-0.000396678	41	19.5487	14.0352	1.70809e-05	107432
2	0	0	0	1	163.542	-1.24226	-1.24208	-0.00174602	5	-0.00041347	41	19.5487	16.8902	2.16869e-06	711373
2	1	0	0	1	166.466	-1.09606	-1.09587	0.00138892	5	-0.000411804	41	19.5487	2.04	-1.52208e-06	789015
2	1	0	0	1	169.39	-0.949859	-0.949653	0.00215574	5	-0.000405419	41	19.5487	4.964	-2.04721e-06	440523
2	1	0	0	1	172.314	-0.803659	-0.803468	0.00214781	5	-0.000398247	41	19.5487	7.888	-1.7257e-06	374086
2	1	0	0	1	175.15	-0.661879	-0.661685	0.00196908	6	-0.000391706	41	19.5487	10.7236	-1.30291e-06	336037
2	1	0	1	1	177.89	-0.675452	-0.6753	-5.0454e-06	6	-0.000388622	42	19.5487	0.408	3.40716e-09	1.33845e+08
2	0	0	1	1	180.814	-0.821652	-0.821529	-0.00101308	6	-0.000390877	42	19.5487	3.332	8.32276e-07	810920
2	0	0	1	1	183.766	-0.969212	-0.969005	-0.00221714	6	-0.000396337	41	19.5487	6.2832	2.14842e-06	437052
2	0	0	1	1	186.69	-1.11541	-1.11523	-0.0041084	6	-0.000406167	41	19.5487	9.2072	4.58182e-06	271452
2	0	0	1	1	189.614	-1.26161	-1.26145	-0.00844135	6	-0.000424785	41	19.5487	12.1312	1.06483e-05	149437
2	0	0	0	0	192.434	-1.33714	-1.33696	-0.00681217	6	-0.000454224	41	19.5487	14.9518	9.10757e-06	196260
2	0	0	0	0	195.358	-1.19094	-1.19077	0.000141431	6	-0.000460418	41	19.5487	0.408	-1.68412e-07	8.41944e+06
2	1	0	0	0	198.282	-1.04474	-1.04456	0.00193583	6	-0.000455589	41	19.5487	3.332	-2.0221e-06	539594
2	1	0	0	0	201.206	-0.898559	-0.898378	0.00230611	6	-0.000448354	41	19.5487	6.2556	-2.07175e-06	389565
2	1	0	0	0	204.035	-0.757119	-0.756953	0.00214296	7	-0.000441328	41	19.5487	9.0844	-1.62212e-06	353228
2	1	0	0	0	206.958	-0.610959	-0.61077	0.00193229	7	-0.000434716	41	19.5487	12.0076	-1.18018e-06	316086
2	0	0	1	0	209.802	-0.731272	-0.731118	-0.000449923	7	-0.000434309	41	19.5487	1.496	3.28947e-07	1.62498e+06
2	0	0	1	0	212.726	-0.877472	-0.877291	-0.00137774	7	-0.000437665	41	19.5487	4.42	1.20868e-06	636761
2	0	0	1	0	215.65	-1.02367	-1.02348	-0.00265544	7	-0.000444369	41	19.5487	7.344	2.71779e-06	385428
2	0	0	1	0	218.574	-1.16987	-1.16969	-0.00514292	7	-0.000456308	41	19.5487	10.268	6.01564e-06	227438
2	0	0	1	0	221.498	-1.31607	-1.31587	-0.0102258	7	-0.000479652	41	19.5487	13.192	1.34558e-05	128682
2	0	0	1	1	224.312	-1.28307	-1.28289	-0.00289228	7	-0.000502219	41	19.5487	16.006	3.71048e-06	443556
2	1	0	1	1	227.236	-1.13687	-1.1367	0.0012788	7	-0.000502045	41	19.5487	1.564	-1.4536e-06	888879
2	1	0	1	1	230.16	-0.990669	-0.990498	0.00222013	7	-0.000495487	41	19.5487	4.488	-2.19903e-06	446145
2	1	0	1	1	233.084	-0.844469	-0.844296	0.00229965	7	-0.00048792	41	19.5487	7.412	-1.94159e-06	367140
2	1	0	1	1	235.919	-0.702689	-0.702512	0.00208064	8	-0.000481011	41	19.5487	10.2476	-1.46167e-06	337643
2	1	0	1	1	238.694	-0.636362	-0.636148	0.000441771	8	-0.000475979	41	19.5487	13.0224	-2.81032e-07	1.44e+06
2	0	0	1	1	241.618	-0.782562	-0.782378	-0.000760286	8	-0.00047732	41	19.5487	2.516	5.94831e-07	1.02906e+06
2	0	0	1	1	244.542	-0.928762	-0.92859	-0.00175582	8	-0.000481685	41	19.5487	5.44	1.63044e-06	528864
2	0	0	1	1	247.466	-1.07496	-1.07479	-0.00318668	8	-0.000489708	41	19.5487	8.364	3.42501e-06	337276
2	0	0	1	1	250.39	-1.22116	-1.22098	-0.00648777	8	-0.000504382	41	19.5487	11.288	7.92142e-06	188197
2	0	0	1	1	253.314	-1.36736	-1.3672	-0.0123665	8	-0.000533111	41	19.5487	14.212	1.69075e-05	110556
2	0	0	1	0	256.128	-1.23175	-1.23155	-0.000706209	8	-0.000544464	41	19.5487	17.0256	8.69734e-07	1.7439e+06
2	1	0	1	0	259.052	-1.08555	-1.08537	0.0018593	8	-0.000540613	41	19.5487	2.652	-2.01803e-06	583753
2	1	0	1	0	261.976	-0.939349	-0.939172	0.00234193	8	-0.000533255	41	19.5487	5.576	-2.19947e-06	401026
2	1	0	1	0	264.804	-0.797909	-0.797694	0.00226926	9	-0.000525918	41	19.5487	8.4048	-1.81017e-06	351522
2	1	0	1	0	267.728	-0.651709	-0.651531	0.0020138	9	-0.000518993	41	19.5487	11.3288	-1.31205e-06	323533
2	1	0	1	0	270.594	-0.691562	-0.691424	-0.000113649	9	-0.000516335	42	19.5487	0.612	7.858e-08	6.08383e+06
2	0	0	1	0	273.518	-0.837762	-0.837634	-0.00105178	9	-0.000518836	42	19.5487	3.536	8.81011e-07	796393
2	0	0	1	0	276.476	-0.985662	-0.985478	-0.00221492	9	-0.000524454	41	19.5487	6.494	2.18276e-06	444927
2	0	0	0	0	279.4	-1.13185	-1.13167	-0.00411369	9	-0.000534301	41	19.5487	9.4178	4.65533e-06	275097
2	0	0	0	0	282.324	-1.27805	-1.27786	-0.00868128	9	-0.000553365	41	19.5487	12.3418	1.10935e-05	147197
2	0	0	1	1	285.151	-1.32048	-1.32027	-0.00485466	9	-0.00058035	41	19.5487	15.1692	6.40948e-06	271960
2	1	0	1	1	288.075	-1.17428	-1.17411	0.000861647	9	-0.00058319	41	19.5487	0.952	-1.01167e-06	1.36264e+06
2	1	0	1	1	290.999	-1.02808	-1.02792	0.00220036	9	-0.000577067	41	19.5487	3.876	-2.2618e-06	467159
2	1	0	1	1	293.923	-0.881879	-0.881693	0.00237715	9	-0.000569359	41	19.5487	6.8	-2.09592e-06	370904
2	1	0	1	1	296.759	-0.740099	-0.739942	0.00215693	10	-0.000562185	41	19.5487	9.6356	-1.59601e-06	343053
2	1	0	0	1	299.597	-0.601802	-0.601607	0.00159397	10	-0.000555738	41	19.5487	12.474	-9.58944e-07	377427
2	1	0	0	1	300.559	-0.649911	-0.649735	0.000207108	10	-0.00055527	42	19.5487	13.4362	-1.34565e-07	3.13718e+06